#   1 NUMBER                 Running object number                                     
#   2 FLUX_BEST              Best of FLUX_AUTO and FLUX_ISOCOR                          [count]
#   3 FLUXERR_BEST           RMS error for BEST flux                                    [count]
#   4 X_IMAGE                Object position along x                                    [pixel]
#   5 Y_IMAGE                Object position along y                                    [pixel]
#   6 A_IMAGE                Profile RMS along major axis                               [pixel]
#   7 B_IMAGE                Profile RMS along minor axis                               [pixel]
#   8 THETA_IMAGE            Position angle (CCW/x)                                     [deg]
         1  6.20452e+08     77.62087   1380.583    123.507    14.826    10.553 -38.3
         2  4.72065e+08     78.29432   1424.304     32.707    15.680    11.761  63.2
         3 4.613696e+07     48.75449   1209.863     33.893    10.351     5.971  42.0
         4 2.987815e+07     39.12799    568.802    103.901     7.534     5.268 -71.3
         5 1.036387e+09     91.97826    103.746    195.197    18.838    11.674  -1.2
         6 2.420185e+09     110.4129    129.992    277.917    24.009    13.192 -25.3
         7 3.197819e+07     40.26164    815.433    148.443     7.281     5.791  67.3
         8 4.134372e+08     60.57227    874.091    306.031    15.076    12.473 -22.3
         9 3.753381e+07     41.86884    818.040    206.732     7.762     5.866  32.6
        10  5.03113e+07     44.39595    965.378    227.237     8.899     5.756 -37.5
        11 5.062169e+10     126.7438    271.163    493.051    28.185    14.798  34.6
        12 4.892981e+08       56.921    825.008    344.996    13.619    10.372 -81.6
        13 3.634648e+07      40.6694    475.817    230.641     7.708     5.573   2.9
        14  3.46391e+07     39.81206   1063.793    283.950     6.521     6.320  83.3
        15 2.302761e+07     35.81899   1502.824    281.338     6.115     5.439  73.5
        16 1.423888e+08     52.80151     79.606    393.947     9.849     7.355  47.2
        17 3.364529e+07     62.41795    495.669    424.618    11.734     8.640  52.0
        18 4.767849e+07     46.26014   1062.380    415.103     9.037     6.147 -24.0
        19 1.105006e+10     125.3675    673.411    590.824    26.953    15.149   7.1
        20 4.383215e+07     65.38348   1252.537    988.138    11.189     9.933  40.9
        21 4.663911e+07     50.06995    942.543    754.086     8.710     7.483 -62.2
        22 7.069884e+07     47.61302    287.698    728.964     9.916     5.939  31.5
        23 1.946232e+07     52.01923     60.430    678.244     9.124     7.693  11.0
        24      4513460     16.09348     67.844    656.000     5.761     3.205  30.5
        25  6.63246e+07     79.25907     83.186    611.852    13.723    11.903 -81.9
        26 4.942725e+08     79.01898   1289.986    611.282    14.124    11.481  54.0
        27 2.036634e+07     36.97296    361.832   1212.938     6.699     5.304 -78.1
        28 9.886832e+07     61.65225    586.625    889.125    11.712     8.423 -65.1
        29 2.168122e+07     36.61967   1295.460    498.339     6.289     5.553  78.8
        30 1.847519e+07     35.76311    953.414    480.871     6.100     5.451 -17.3
        31 2.172297e+07     36.41428   1131.334    455.631     6.505     5.281  -0.7
        32 4.699704e+07     42.07137    768.167   1285.369     8.153     5.635  73.4
        33  2.97317e+07     36.34556   1194.890   1244.275     6.387     5.350  -9.8
        34 1.506177e+09     95.27329    234.909   1229.391    18.907    12.471   4.3
        35 6.256669e+07      51.7494    207.602    855.534    10.185     6.845  54.6
        36  4.89236e+07     70.62577    389.369   1108.565    13.245     9.797   1.2
        37  9.98547e+07     41.23106   1020.685   1033.921     6.725     6.572 -36.6
        38 3.524266e+07     41.23106    176.613    778.237     7.839     5.652   6.0
        39 2.337273e+07     36.41428   1443.876    762.057     6.966     4.929  79.1
        40 3.078932e+07     65.39877   1118.002    907.753    10.727    10.350 -84.5
        41 1.414806e+08     86.31339    358.346    775.504    16.038    12.065 -77.9
        42 3.788053e+07     40.69398    476.972    928.173     7.476     5.765 -41.6
        43 4.691143e+07     51.94228    905.242    913.344    11.044     6.338 -29.2
        44 4.204175e+08     104.4366   1163.954   1003.252    23.097    12.261  35.5
        45 2.714385e+07     36.31804   1338.023   1005.257     6.180     5.540  -4.8
        46 2.823105e+09     105.9245    232.477    991.062    19.696    14.809  23.9
        47 2.505833e+07     37.76242    685.345   1000.997     7.433     4.968  61.5
